 Alcohol, Total phenols, Color intensity
14.22,3.2,6.38
11.03,2.46,1.9
13.4,1.98,8.5
12.21,1.85,2.85
13.69,1.83,5.88
13.63,2.85,7.3
12.07,2.6,2.76
13.16,2.8,5.68
12.33,1.9,3.4
12.93,1.54,4.6
13.52,1.55,4.35
11.41,2.48,3.08
12.33,2.05,3.27
13.5,2.53,3.52
13.11,2.98,5.3
13.16,1.5,4.0
12.37,2.42,4.6
13.86,2.98,7.22
12.81,1.15,5.7
12.43,2.74,3.94
12.77,1.39,9.899999
14.3,2.8,6.2
12.77,1.63,3.4
13.83,2.45,5.6
11.61,2.74,2.65
12.42,2.0,2.06
14.16,1.68,9.7
